#t	<s0_z(t)*s0_z(0)>
0	1.16189
0.010006	1.16184
0.0200435	1.16132
0.030081	1.16078
0.0401185	1.16021
0.050156	1.15962
0.0601935	1.159
0.070231	1.15836
0.0802685	1.1577
0.090306	1.15701
0.100344	1.1563
0.110381	1.15556
0.120419	1.1548
0.130456	1.15402
0.140494	1.15321
0.150531	1.15237
0.160569	1.15152
0.170606	1.15064
0.180644	1.14973
0.190681	1.1488
0.200719	1.14785
0.210756	1.14688
0.220794	1.14588
0.230831	1.14486
0.240869	1.14381
0.250906	1.14275
0.260944	1.14165
0.270981	1.14054
0.281019	1.1394
0.291056	1.13824
0.301094	1.13706
0.311131	1.13586
0.321169	1.13463
0.331206	1.13338
0.341244	1.13211
0.351281	1.13081
0.361319	1.1295
0.371356	1.12816
0.381394	1.1268
0.391431	1.12542
0.401469	1.12401
0.411506	1.12259
0.421544	1.12114
0.431581	1.11968
0.441619	1.11819
0.451656	1.11668
0.461694	1.11515
0.471731	1.1136
0.481769	1.11202
0.491806	1.11043
0.501844	1.10882
0.511881	1.10719
0.521919	1.10553
0.531956	1.10386
0.541994	1.10217
0.552031	1.10045
0.562069	1.09872
0.572106	1.09697
0.582144	1.0952
0.592181	1.09341
0.602219	1.0916
0.612256	1.08977
0.622294	1.08793
0.632331	1.08606
0.642369	1.08418
0.652407	1.08228
0.662444	1.08036
0.672482	1.07842
0.682519	1.07647
0.692557	1.0745
0.702594	1.07251
0.712632	1.0705
0.722669	1.06847
0.732707	1.06643
0.742744	1.06438
0.752782	1.0623
0.762819	1.06021
0.772857	1.0581
0.782894	1.05598
0.792932	1.05384
0.802969	1.05169
0.813007	1.04952
0.823044	1.04733
0.833082	1.04513
0.843119	1.04292
0.853157	1.04069
0.863194	1.03844
0.873232	1.03618
0.883269	1.03391
0.893307	1.03162
0.903344	1.02932
0.913382	1.027
0.923419	1.02468
0.933457	1.02233
0.943494	1.01998
0.953532	1.01761
0.963569	1.01523
0.973607	1.01284
0.983644	1.01043
0.993682	1.00802
1.00372	1.00559
1.01376	1.00315
1.02379	1.0007
1.03383	0.998232
1.04387	0.995758
1.05391	0.993272
1.06394	0.990776
1.07398	0.98827
1.08402	0.985753
1.09406	0.983227
1.10409	0.98069
1.11413	0.978144
1.12417	0.975588
1.13421	0.973023
1.14424	0.97045
1.15428	0.967867
1.16432	0.965276
1.17436	0.962677
1.18439	0.960069
1.19443	0.957454
1.20447	0.95483
1.21451	0.9522
1.22454	0.949562
1.23458	0.946917
1.24462	0.944265
1.25466	0.941607
1.26469	0.938942
1.27473	0.936271
1.28477	0.933594
1.29481	0.930912
1.30484	0.928224
1.31488	0.925531
1.32492	0.922832
1.33496	0.920129
1.34499	0.917421
1.35503	0.914709
1.36507	0.911993
1.37511	0.909273
1.38514	0.906549
1.39518	0.903821
1.40522	0.901091
1.41526	0.898357
1.42529	0.89562
1.43533	0.892881
1.44537	0.89014
1.45541	0.887396
1.46544	0.884651
1.47548	0.881904
1.48552	0.879156
1.49556	0.876406
1.50559	0.873655
1.51563	0.870904
1.52567	0.868152
1.53571	0.8654
1.54574	0.862647
1.55578	0.859895
1.56582	0.857143
1.57586	0.854392
1.58589	0.851642
1.59593	0.848893
1.60597	0.846145
1.61601	0.843399
1.62604	0.840654
1.63608	0.837911
1.64612	0.835171
1.65616	0.832433
1.66619	0.829698
1.67623	0.826965
1.68627	0.824236
1.69631	0.82151
1.70634	0.818788
1.71638	0.816069
1.72642	0.813355
1.73646	0.810644
1.74649	0.807939
1.75653	0.805237
1.76657	0.802541
1.77661	0.79985
1.78664	0.797164
1.79668	0.794484
1.80672	0.79181
1.81676	0.789142
1.82679	0.78648
1.83683	0.783824
1.84687	0.781175
1.85691	0.778533
1.86694	0.775899
1.87698	0.773271
1.88702	0.770651
1.89706	0.768039
1.9071	0.765435
1.91713	0.762839
1.92717	0.760252
1.93721	0.757673
1.94725	0.755103
1.95728	0.752542
1.96732	0.749991
1.97736	0.747449
1.9874	0.744916
1.99743	0.742394
2.00747	0.739881
2.01751	0.73738
2.02755	0.734888
2.03758	0.732407
2.04762	0.729938
2.05766	0.727479
2.0677	0.725032
2.07773	0.722596
2.08777	0.720172
2.09781	0.71776
2.10785	0.715361
2.11788	0.712973
2.12792	0.710599
2.13796	0.708236
2.148	0.705887
2.15803	0.703551
2.16807	0.701229
2.17811	0.69892
2.18815	0.696625
2.19818	0.694343
2.20822	0.692076
2.21826	0.689823
2.2283	0.687584
2.23833	0.68536
2.24837	0.683151
2.25841	0.680958
2.26845	0.678779
2.27848	0.676615
2.28852	0.674468
2.29856	0.672336
2.3086	0.67022
2.31863	0.66812
2.32867	0.666036
2.33871	0.663969
2.34875	0.661918
2.35878	0.659884
2.36882	0.657868
2.37886	0.655868
2.3889	0.653885
2.39893	0.65192
2.40897	0.649973
2.41901	0.648044
2.42905	0.646132
2.43908	0.644239
2.44912	0.642363
2.45916	0.640506
2.4692	0.638668
2.47923	0.636849
2.48927	0.635048
2.49931	0.633266
2.50935	0.631504
2.51938	0.629761
2.52942	0.628037
2.53946	0.626333
2.5495	0.624649
2.55953	0.622984
2.56957	0.62134
2.57961	0.619716
2.58965	0.618112
2.59968	0.616528
2.60972	0.614965
2.61976	0.613423
2.6298	0.611901
2.63983	0.610401
2.64987	0.608921
2.65991	0.607463
2.66995	0.606026
2.67998	0.60461
2.68002	0.603222
2.69002	0.603216
2.70006	0.601844
2.7101	0.600493
2.72013	0.599165
2.73017	0.597858
2.74021	0.596573
2.75025	0.595311
2.76028	0.594071
2.77032	0.592853
2.78036	0.591658
2.7904	0.590486
2.80043	0.589336
2.81047	0.588209
2.82051	0.587105
2.83055	0.586024
2.84058	0.584966
2.85062	0.583931
2.86066	0.582919
2.8707	0.581931
2.88073	0.580966
2.89077	0.580025
2.90081	0.579107
2.91085	0.578213
2.92088	0.577343
2.93092	0.576496
2.94096	0.575673
2.951	0.574875
2.96103	0.5741
2.97107	0.573349
2.98111	0.572623
2.99115	0.57192
3.00118	0.571242
3.01122	0.570589
3.02126	0.569959
3.0313	0.569354
3.04133	0.568774
3.05137	0.568218
3.06141	0.567686
3.07145	0.567179
3.08148	0.566697
3.09152	0.56624
3.10156	0.565807
3.1116	0.565399
3.12163	0.565016
3.13167	0.564657
3.14171	0.564324
3.15175	0.564015
3.16178	0.563731
3.17182	0.563472
3.18186	0.563239
3.1919	0.56303
3.20193	0.562846
3.21197	0.562687
3.22201	0.562553
3.23205	0.562444
3.24208	0.56236
3.25212	0.562302
3.26216	0.562268
3.2722	0.562259
3.28223	0.562276
3.29227	0.562317
3.30231	0.562383
3.31235	0.562475
3.32238	0.562592
3.33242	0.562733
3.34246	0.5629
3.3525	0.563091
3.36253	0.563308
3.37257	0.563549
3.38261	0.563816
3.39265	0.564107
3.40268	0.564424
3.41272	0.564765
3.42276	0.565131
3.4328	0.565522
3.44283	0.565937
3.45287	0.566378
3.46291	0.566843
3.47295	0.567333
3.48298	0.567847
3.49302	0.568386
3.50306	0.56895
3.5131	0.569538
3.52313	0.57015
3.53317	0.570787
3.54321	0.571448
3.55325	0.572134
3.56328	0.572844
3.57332	0.573578
3.58336	0.574336
3.5934	0.575118
3.60343	0.575924
3.61347	0.576754
3.62351	0.577608
3.63355	0.578485
3.64358	0.579387
3.65362	0.580312
3.66366	0.58126
3.6737	0.582232
3.68373	0.583228
3.69377	0.584247
3.70381	0.585289
3.71385	0.586354
3.72388	0.587442
3.73392	0.588553
3.74396	0.589687
3.754	0.590844
3.76403	0.592023
3.77407	0.593226
3.78411	0.59445
3.79415	0.595697
3.80418	0.596966
3.81422	0.598258
3.82426	0.599571
3.8343	0.600907
3.84433	0.602264
3.85437	0.603643
3.86441	0.605044
3.87445	0.606466
3.88448	0.607909
3.89452	0.609374
3.90456	0.61086
3.9146	0.612367
3.92463	0.613895
3.93467	0.615444
3.94471	0.617013
3.95475	0.618603
3.96478	0.620213
3.97482	0.621844
3.98486	0.623494
3.9949	0.625165
4.00493	0.626855
4.01497	0.628565
4.02501	0.630295
4.03505	0.632044
4.04508	0.633813
4.05512	0.6356
4.06516	0.637407
4.0752	0.639232
4.08523	0.641076
4.09527	0.642938
4.10531	0.644819
4.11535	0.646718
4.12538	0.648635
4.13542	0.65057
4.14546	0.652523
4.1555	0.654494
4.16553	0.656481
4.17557	0.658486
4.18561	0.660508
4.19565	0.662547
4.20568	0.664603
4.21572	0.666675
4.22576	0.668764
4.2358	0.670869
4.24583	0.67299
4.25587	0.675127
4.26591	0.677279
4.27595	0.679448
4.28598	0.681631
4.29602	0.68383
4.30606	0.686043
4.3161	0.688272
4.32613	0.690515
4.33617	0.692772
4.34621	0.695044
4.35625	0.697329
4.36628	0.699629
4.37632	0.701942
4.38636	0.704269
4.3964	0.706609
4.40643	0.708962
4.41647	0.711328
4.42651	0.713707
4.43655	0.716098
4.44658	0.718501
4.45662	0.720917
4.46666	0.723344
4.4767	0.725784
4.48673	0.728234
4.49677	0.730696
4.50681	0.73317
4.51685	0.735654
4.52688	0.738148
4.53692	0.740653
4.54696	0.743169
4.557	0.745694
4.56703	0.74823
4.57707	0.750775
4.58711	0.753329
4.59715	0.755893
4.60718	0.758466
4.61722	0.761047
4.62726	0.763637
4.6373	0.766236
4.64733	0.768842
4.65737	0.771457
4.66741	0.774079
4.67745	0.776709
4.68748	0.779346
4.69752	0.78199
4.70756	0.784641
4.7176	0.787298
4.72763	0.789962
4.73767	0.792632
4.74771	0.795308
4.75775	0.79799
4.76778	0.800678
4.77782	0.80337
4.78786	0.806068
4.7979	0.808771
4.80793	0.811478
4.81797	0.814189
4.82801	0.816905
4.83805	0.819625
4.84808	0.822349
4.85812	0.825076
4.86816	0.827806
4.8782	0.830539
4.88823	0.833275
4.89827	0.836014
4.90831	0.838755
4.91835	0.841498
4.92838	0.844244
4.93842	0.84699
4.94846	0.849739
4.9585	0.852488
4.96853	0.855239
4.97857	0.85799
4.98861	0.860742
4.99865	0.863494
5.00868	0.866247
5.01872	0.868999
5.02876	0.87175
5.0388	0.874502
5.04884	0.877252
5.05887	0.880001
5.06891	0.882749
5.07895	0.885496
5.08899	0.888241
5.09902	0.890984
5.10906	0.893724
5.1191	0.896463
5.12914	0.899198
5.13917	0.901931
5.14921	0.904661
5.15925	0.907387
5.16929	0.91011
5.17932	0.912829
5.18936	0.915544
5.1994	0.918255
5.20944	0.920961
5.21947	0.923663
5.22951	0.92636
5.23955	0.929051
5.24959	0.931738
5.25962	0.934419
5.26966	0.937094
5.2797	0.939763
5.28974	0.942426
5.29977	0.945082
5.30981	0.947732
5.31985	0.950374
5.32989	0.95301
5.33992	0.955638
5.34996	0.958259
5.36	0.960872
5.36003	0.963468
5.37004	0.963477
5.38007	0.966074
5.39011	0.968663
5.40015	0.971243
5.41019	0.973814
5.42022	0.976376
5.43026	0.978928
5.4403	0.981472
5.45034	0.984005
5.46037	0.986529
5.47041	0.989042
5.48045	0.991546
5.49049	0.994038
5.50052	0.99652
5.51056	0.998991
5.5206	1.00145
5.53064	1.0039
5.54067	1.00634
5.55071	1.00876
5.56075	1.01118
5.57079	1.01358
5.58082	1.01597
5.59086	1.01834
5.6009	1.02071
5.61094	1.02306
5.62097	1.02539
5.63101	1.02772
5.64105	1.03003
5.65109	1.03233
5.66112	1.03461
5.67116	1.03688
5.6812	1.03913
5.69124	1.04137
5.70127	1.0436
5.71131	1.04581
5.72135	1.04801
5.73139	1.05019
5.74142	1.05235
5.75146	1.0545
5.7615	1.05664
5.77154	1.05875
5.78157	1.06086
5.79161	1.06294
5.80165	1.06501
5.81169	1.06706
5.82172	1.0691
5.83176	1.07112
5.8418	1.07312
5.85184	1.0751
5.86187	1.07707
5.87191	1.07902
5.88195	1.08095
5.89199	1.08287
5.90202	1.08476
5.91206	1.08664
5.9221	1.0885
5.93214	1.09034
5.94217	1.09216
5.95221	1.09396
5.96225	1.09575
5.97229	1.09751
5.98232	1.09926
5.99236	1.10098
6.0024	1.10269
6.01244	1.10438
6.02247	1.10604
6.03251	1.10769
6.04255	1.10932
6.05259	1.11092
6.06262	1.11251
6.07266	1.11408
6.0827	1.11562
6.09274	1.11714
6.10277	1.11865
6.11281	1.12013
6.12285	1.12159
6.13289	1.12303
6.14292	1.12445
6.15296	1.12585
6.163	1.12722
6.17304	1.12857
6.18307	1.1299
6.19311	1.13121
6.20315	1.1325
6.21319	1.13377
6.22322	1.13501
6.23326	1.13623
6.2433	1.13743
6.25334	1.1386
6.26337	1.13976
6.27341	1.14089
6.28345	1.14199
6.29349	1.14308
6.30352	1.14414
6.31356	1.14518
6.3236	1.14619
6.33364	1.14718
6.34367	1.14815
6.35371	1.14909
6.36375	1.15001
6.37379	1.15091
6.38382	1.15178
6.39386	1.15263
6.4039	1.15346
6.41394	1.15426
6.42397	1.15504
6.43401	1.15579
6.44405	1.15652
6.45409	1.15723
6.46412	1.15791
6.47416	1.15856
6.4842	1.1592
6.49424	1.1598
6.50427	1.16039
6.51431	1.16095
6.52435	1.16148
6.53439	1.16199
6.54442	1.16248
6.55446	1.16294
6.5645	1.16337
6.57454	1.16378
6.58457	1.16417
6.59461	1.16453
6.60465	1.16487
6.61469	1.16518
6.62472	1.16547
6.63476	1.16573
6.6448	1.16597
6.65484	1.16618
6.66487	1.16636
6.67491	1.16653
6.68495	1.16666
6.69499	1.16678
6.70502	1.16686
6.71506	1.16692
6.7251	1.16696
6.73514	1.16697
6.74517	1.16696
6.75521	1.16692
6.76525	1.16686
6.77529	1.16677
6.78532	1.16666
6.79536	1.16652
6.8054	1.16635
6.81544	1.16617
6.82547	1.16595
6.83551	1.16571
6.84555	1.16545
6.85559	1.16516
6.86562	1.16485
6.87566	1.16451
6.8857	1.16415
6.89574	1.16376
6.90577	1.16335
6.91581	1.16291
6.92585	1.16245
6.93589	1.16196
6.94592	1.16145
6.95596	1.16091
6.966	1.16035
6.97604	1.15977
6.98607	1.15916
6.99611	1.15852
7.00615	1.15787
7.01619	1.15718
7.02622	1.15648
7.03626	1.15575
7.0463	1.15499
7.05634	1.15421
7.06637	1.15341
7.07641	1.15258
7.08645	1.15173
7.09649	1.15085
7.10652	1.14996
7.11656	1.14903
7.1266	1.14809
7.13664	1.14712
7.14667	1.14613
7.15671	1.14511
7.16675	1.14407
7.17679	1.14301
7.18682	1.14192
7.19686	1.14082
7.2069	1.13968
7.21694	1.13853
7.22697	1.13735
7.23701	1.13615
7.24705	1.13493
7.25709	1.13369
7.26712	1.13242
7.27716	1.13113
7.2872	1.12982
7.29724	1.12849
7.30727	1.12714
7.31731	1.12576
7.32735	1.12436
7.33739	1.12294
7.34742	1.1215
7.35746	1.12004
7.3675	1.11855
7.37754	1.11705
7.38757	1.11552
7.39761	1.11398
7.40765	1.11241
7.41769	1.11082
7.42772	1.10922
7.43776	1.10759
7.4478	1.10594
7.45784	1.10427
7.46787	1.10258
7.47791	1.10088
7.48795	1.09915
7.49799	1.0974
7.50802	1.09564
7.51806	1.09385
7.5281	1.09205
7.53814	1.09022
7.54817	1.08838
7.55821	1.08652
7.56825	1.08464
7.57829	1.08275
7.58832	1.08083
7.59836	1.0789
7.6084	1.07695
7.61844	1.07498
7.62847	1.07299
7.63851	1.07099
7.64855	1.06897
7.65859	1.06694
7.66862	1.06488
7.67866	1.06281
7.6887	1.06072
7.69874	1.05862
7.70877	1.0565
7.71881	1.05437
7.72885	1.05222
7.73889	1.05005
7.74892	1.04787
7.75896	1.04567
7.769	1.04346
7.77904	1.04123
7.78907	1.03899
7.79911	1.03674
7.80915	1.03447
7.81919	1.03218
7.82922	1.02989
7.83926	1.02757
7.8493	1.02525
7.85934	1.02291
7.86937	1.02056
7.87941	1.01819
7.88945	1.01582
7.89949	1.01343
7.90952	1.01103
7.91956	1.00861
7.9296	1.00619
7.93964	1.00375
7.94967	1.0013
7.95971	0.998838
7.96975	0.996366
7.97979	0.993883
7.98982	0.99139
7.99986	0.988886
8.0099	0.986372
8.01994	0.983847
8.02997	0.981313
8.03001	0.978779
8.04001	0.978769
8.05005	0.976216
8.06009	0.973654
8.07013	0.971082
8.08016	0.968502
8.0902	0.965913
8.10024	0.963315
8.11028	0.96071
8.12031	0.958096
8.13035	0.955475
8.14039	0.952846
8.15043	0.95021
8.16046	0.947567
8.1705	0.944916
8.18054	0.94226
8.19058	0.939596
8.20061	0.936927
8.21065	0.934252
8.22069	0.931571
8.23073	0.928884
8.24076	0.926192
8.2508	0.923495
8.26084	0.920793
8.27088	0.918086
8.28091	0.915375
8.29095	0.91266
8.30099	0.90994
8.31103	0.907217
8.32106	0.904491
8.3311	0.901761
8.34114	0.899028
8.35118	0.896292
8.36121	0.893554
8.37125	0.890813
8.38129	0.88807
8.39133	0.885325
8.40136	0.882578
8.4114	0.87983
8.42144	0.877081
8.43148	0.87433
8.44151	0.871579
8.45155	0.868827
8.46159	0.866075
8.47163	0.863323
8.48166	0.86057
8.4917	0.857819
8.50174	0.855067
8.51178	0.852317
8.52181	0.849567
8.53185	0.846819
8.54189	0.844072
8.55193	0.841327
8.56196	0.838584
8.572	0.835843
8.58204	0.833105
8.59208	0.830369
8.60211	0.827635
8.61215	0.824905
8.62219	0.822179
8.63223	0.819455
8.64226	0.816736
8.6523	0.81402
8.66234	0.811309
8.67238	0.808602
8.68241	0.8059
8.69245	0.803202
8.70249	0.80051
8.71253	0.797823
8.72256	0.795141
8.7326	0.792466
8.74264	0.789796
8.75268	0.787132
8.76271	0.784475
8.77275	0.781825
8.78279	0.779181
8.79283	0.776544
8.80286	0.773915
8.8129	0.771293
8.82294	0.768679
8.83298	0.766073
8.84301	0.763475
8.85305	0.760886
8.86309	0.758305
8.87313	0.755733
8.88316	0.75317
8.8932	0.750616
8.90324	0.748071
8.91328	0.745537
8.92331	0.743012
8.93335	0.740497
8.94339	0.737992
8.95343	0.735498
8.96346	0.733015
8.9735	0.730543
8.98354	0.728081
8.99358	0.725631
9.00361	0.723193
9.01365	0.720766
9.02369	0.718351
9.03373	0.715948
9.04376	0.713558
9.0538	0.71118
9.06384	0.708815
9.07388	0.706463
9.08391	0.704123
9.09395	0.701797
9.10399	0.699485
9.11403	0.697186
9.12406	0.694902
9.1341	0.692631
9.14414	0.690374
9.15418	0.688132
9.16421	0.685905
9.17425	0.683692
9.18429	0.681494
9.19433	0.679312
9.20436	0.677145
9.2144	0.674993
9.22444	0.672857
9.23448	0.670737
9.24451	0.668633
9.25455	0.666546
9.26459	0.664474
9.27463	0.66242
9.28466	0.660382
9.2947	0.658361
9.30474	0.656357
9.31478	0.65437
9.32481	0.652401
9.33485	0.650449
9.34489	0.648515
9.35493	0.646599
9.36496	0.644701
9.375	0.642822
9.38504	0.64096
9.39508	0.639118
9.40511	0.637293
9.41515	0.635488
9.42519	0.633702
9.43523	0.631935
9.44526	0.630187
9.4553	0.628458
9.46534	0.626749
9.47538	0.62506
9.48541	0.623391
9.49545	0.621741
9.50549	0.620112
9.51553	0.618503
9.52556	0.616915
9.5356	0.615347
9.54564	0.613799
9.55568	0.612273
9.56571	0.610767
9.57575	0.609282
9.58579	0.607819
9.59583	0.606377
9.60586	0.604956
9.6159	0.603556
9.62594	0.602179
9.63598	0.600823
9.64601	0.599489
9.65605	0.598177
9.66609	0.596887
9.67613	0.595619
9.68616	0.594373
9.6962	0.59315
9.70624	0.591949
9.71628	0.590771
9.72631	0.589616
9.73635	0.588483
9.74639	0.587373
9.75643	0.586287
9.76646	0.585223
9.7765	0.584182
9.78654	0.583165
9.79658	0.582171
9.80661	0.581201
9.81665	0.580253
9.82669	0.57933
9.83673	0.57843
9.84676	0.577554
9.8568	0.576701
9.86684	0.575873
9.87688	0.575068
9.88691	0.574288
9.89695	0.573531
9.90699	0.572799
9.91703	0.57209
9.92706	0.571406
9.9371	0.570747
9.94714	0.570111
9.95718	0.5695
9.96721	0.568914
9.97725	0.568352
9.98729	0.567814
9.99733	0.567301
10.0074	0.566813
10.0174	0.56635
10.0274	0.565911
10.0375	0.565497
10.0475	0.565107
10.0576	0.564743
10.0676	0.564403
10.0776	0.564088
10.0877	0.563799
10.0977	0.563534
10.1077	0.563294
10.1178	0.563079
10.1278	0.562889
10.1379	0.562724
10.1479	0.562584
10.1579	0.562469
10.168	0.562379
10.178	0.562314
10.188	0.562274
10.1981	0.562259
10.2081	0.562269
10.2182	0.562304
10.2282	0.562365
10.2382	0.56245
10.2483	0.562561
10.2583	0.562696
10.2683	0.562857
10.2784	0.563042
10.2884	0.563252
10.2985	0.563488
10.3085	0.563748
10.3185	0.564034
10.3286	0.564344
10.3386	0.564679
10.3486	0.565039
10.3587	0.565424
10.3687	0.565833
10.3788	0.566267
10.3888	0.566727
10.3988	0.56721
10.4089	0.567719
10.4189	0.568252
10.4289	0.568809
10.439	0.569391
10.449	0.569998
10.4591	0.570629
10.4691	0.571284
10.4791	0.571963
10.4892	0.572667
10.4992	0.573395
10.5092	0.574147
10.5193	0.574924
10.5293	0.575724
10.5394	0.576548
10.5494	0.577396
10.5594	0.578268
10.5695	0.579163
10.5795	0.580083
10.5895	0.581025
10.5996	0.581992
10.6096	0.582981
10.6197	0.583995
10.6297	0.585031
10.6397	0.58609
10.6498	0.587173
10.6598	0.588278
10.6698	0.589407
10.6799	0.590558
10.6899	0.591732
10.7	0.592929
10.71	0.594148
10.71	0.595384
10.72	0.595389
10.7301	0.596653
10.7401	0.597939
10.7501	0.599247
10.7602	0.600577
10.7702	0.601929
10.7803	0.603303
10.7903	0.604698
10.8003	0.606115
10.8104	0.607553
10.8204	0.609013
10.8304	0.610494
10.8405	0.611996
10.8505	0.613518
10.8606	0.615062
10.8706	0.616626
10.8806	0.618211
10.8907	0.619816
10.9007	0.621442
10.9107	0.623087
10.9208	0.624753
10.9308	0.626439
10.9409	0.628144
10.9509	0.629869
10.9609	0.631613
10.971	0.633377
10.981	0.63516
10.991	0.636962
11.0011	0.638782
11.0111	0.640622
11.0212	0.64248
11.0312	0.644356
11.0412	0.646251
11.0513	0.648163
11.0613	0.650094
11.0713	0.652042
11.0814	0.654009
11.0914	0.655992
11.1015	0.657993
11.1115	0.660011
11.1215	0.662046
11.1316	0.664097
11.1416	0.666165
11.1516	0.66825
11.1617	0.670351
11.1717	0.672468
11.1818	0.674601
11.1918	0.67675
11.2018	0.678914
11.2119	0.681094
11.2219	0.683289
11.2319	0.685499
11.242	0.687723
11.252	0.689963
11.2621	0.692217
11.2721	0.694485
11.2821	0.696767
11.2922	0.699063
11.3022	0.701373
11.3122	0.703697
11.3223	0.706033
11.3323	0.708383
11.3424	0.710746
11.3524	0.713122
11.3624	0.71551
11.3725	0.71791
11.3825	0.720323
11.3925	0.722748
11.4026	0.725184
11.4126	0.727632
11.4227	0.730091
11.4327	0.732562
11.4427	0.735043
11.4528	0.737535
11.4628	0.740038
11.4728	0.742551
11.4829	0.745074
11.4929	0.747607
11.503	0.750149
11.513	0.752702
11.523	0.755263
11.5331	0.757834
11.5431	0.760413
11.5531	0.763001
11.5632	0.765597
11.5732	0.768202
11.5833	0.770814
11.5933	0.773435
11.6033	0.776063
11.6134	0.778698
11.6234	0.78134
11.6334	0.78399
11.6435	0.786646
11.6535	0.789308
11.6636	0.791977
11.6736	0.794651
11.6836	0.797332
11.6937	0.800018
11.7037	0.802709
11.7137	0.805406
11.7238	0.808107
11.7338	0.810813
11.7439	0.813524
11.7539	0.816239
11.7639	0.818957
11.774	0.82168
11.784	0.824406
11.794	0.827136
11.8041	0.829868
11.8141	0.832604
11.8242	0.835342
11.8342	0.838082
11.8442	0.840825
11.8543	0.84357
11.8643	0.846316
11.8743	0.849064
11.8844	0.851814
11.8944	0.854564
11.9045	0.857315
11.9145	0.860067
11.9245	0.862819
11.9346	0.865571
11.9446	0.868323
11.9546	0.871075
11.9647	0.873827
11.9747	0.876577
11.9848	0.879327
11.9948	0.882075
12.0048	0.884822
12.0149	0.887568
12.0249	0.890311
12.0349	0.893052
12.045	0.895791
